acc_x[mg],acc_y[mg],acc_z[mg],gyro_x[dps],gyro_y[dps],gyro_z[dps]
83.000,-0.000,-1004.000,0.070,-0.770,0.140
87.489,-1.019,-1046.874,0.076,-0.740,0.204
79.857,-0.165,-955.259,0.093,-0.621,0.258
87.856,-0.513,-1052.495,0.281,-0.573,0.321
81.097,-0.898,-966.346,0.386,-0.450,0.408
87.612,0.441,-1032.159,0.462,-0.500,0.521
83.380,-0.421,-989.504,0.577,-0.395,0.466
84.412,-2.070,-1009.645,0.555,-0.427,0.421
84.415,-2.039,-1009.081,0.495,-0.426,0.424
82.154,-1.893,-993.600,0.385,-0.402,0.357
84.842,-2.222,-1015.268,0.244,-0.481,0.355
82.776,-1.315,-990.729,0.175,-0.490,0.311
85.444,-1.237,-1014.793,0.091,-0.477,0.287
84.160,-2.213,-996.551,-0.028,-0.393,0.380
84.275,-1.874,-1008.753,0.020,-0.341,0.421
84.000,-1.000,-1005.000,0.140,-0.210,0.420
83.560,-0.889,-1002.051,0.145,-0.132,0.367
86.156,-1.821,-1009.935,0.098,-0.203,0.244
84.546,-2.025,-998.912,-0.016,-0.201,0.157
83.985,-2.083,-1008.663,-0.114,-0.247,0.135
84.035,-1.705,-1000.448,-0.147,-0.274,0.144
85.361,-0.905,-1007.295,-0.135,-0.188,0.136
84.838,-1.007,-1004.286,-0.143,-0.139,0.143
83.897,-0.977,-1004.464,-0.205,-0.140,0.206
85.809,-1.793,-1004.908,-0.309,-0.134,0.220
85.891,-2.138,-1000.874,-0.526,-0.213,0.163
86.609,-1.934,-1004.293,-0.831,-0.400,0.105
87.004,-1.832,-1000.796,-1.235,-0.552,0.040
86.990,-0.578,-1005.228,-1.418,-0.659,-0.017
85.666,0.012,-1002.270,-1.400,-0.701,-0.078
85.000,-0.000,-1004.000,-1.400,-0.700,-0.070
86.984,0.013,-1005.457,-1.283,-0.705,-0.005
85.469,-0.026,-1004.346,-1.121,-0.647,0.001
85.398,0.032,-1005.686,-0.864,-0.622,0.003
85.835,-0.032,-1003.958,-0.725,-0.633,-0.006
84.897,0.028,-1004.017,-0.661,-0.640,0.010
86.302,-0.020,-1004.048,-0.546,-0.722,-0.016
85.905,0.008,-1004.998,-0.559,-0.771,-0.070
85.050,0.012,-1004.078,-0.435,-0.770,-0.005
84.159,-0.074,-1004.109,-0.297,-0.774,0.003
84.418,0.621,-1002.967,-0.202,-0.732,0.034
85.436,1.275,-1004.346,-0.030,-0.649,0.115
84.367,0.533,-1005.956,0.173,-0.646,0.179
84.118,-0.073,-1004.654,0.415,-0.716,0.321
85.198,0.012,-1005.034,0.493,-0.692,0.345
86.000,0.000,-1004.000,0.560,-0.700,0.350
85.157,0.009,-1004.692,0.685,-0.766,0.358
84.825,-0.035,-1005.440,0.790,-0.770,0.326
85.209,0.099,-1003.836,0.975,-0.773,0.445
84.450,-0.399,-1004.015,1.099,-0.763,0.498
84.024,-1.228,-1003.561,1.125,-0.780,0.493
85.383,-0.785,-1004.294,1.112,-0.755,0.478
85.957,0.030,-1004.966,1.044,-0.700,0.418
85.038,0.004,-1004.033,0.983,-0.763,0.421
84.998,0.083,-1004.639,0.973,-0.833,0.365
84.877,-1.159,-1005.738,1.025,-0.844,0.343
85.525,-2.618,-1005.413,1.070,-0.835,0.332
86.094,-1.180,-1004.311,1.004,-0.847,0.236
85.981,-1.373,-1003.868,0.868,-0.831,0.212
85.985,-1.904,-1004.098,0.753,-0.850,0.205
86.000,-1.000,-1005.000,0.630,-0.910,0.140
86.089,-1.863,-1005.048,0.506,-0.847,0.075
85.195,-2.090,-1004.944,0.393,-0.879,0.070
84.943,-1.971,-1004.466,0.254,-0.935,0.042
84.941,-1.964,-1003.031,0.181,-0.886,-0.048
85.084,-2.088,-1003.066,0.095,-0.943,-0.067
84.877,-1.883,-1004.209,-0.014,-0.980,-0.082
85.086,-2.087,-1005.048,0.002,-0.981,-0.141
86.020,-3.037,-1005.039,-0.061,-0.982,-0.077
85.084,-1.354,-1004.862,-0.096,-0.974,-0.055
85.644,-1.317,-1005.089,0.041,-0.994,-0.091
85.696,-2.518,-1004.088,0.069,-0.935,-0.040
84.687,-1.320,-1003.885,0.095,-0.910,-0.121
85.161,-1.199,-1003.799,0.147,-0.896,-0.117
84.890,-2.087,-1004.244,0.142,-0.834,-0.076
84.000,-2.000,-1006.000,0.210,-0.840,-0.140
83.839,-1.945,-1005.180,0.273,-0.786,-0.079
85.036,-2.125,-1004.828,0.327,-0.705,-0.068
83.756,-1.755,-1004.906,0.398,-0.707,-0.035
83.302,-2.630,-1004.801,0.432,-0.670,0.015
85.895,-2.785,-1004.603,0.398,-0.618,-0.008
85.715,-1.881,-1003.846,0.343,-0.635,0.003
84.998,-2.014,-1004.025,0.351,-0.628,-0.001
85.017,-1.999,-1003.998,0.349,-0.628,-0.001
84.926,-2.048,-1004.698,0.403,-0.640,0.049
85.155,-1.822,-1005.168,0.433,-0.576,0.132
84.402,-2.679,-1004.061,0.428,-0.561,0.130
83.894,-2.698,-1003.885,0.548,-0.536,0.173
83.992,-2.006,-1003.734,0.536,-0.487,0.202
84.078,-3.159,-1002.974,0.491,-0.578,0.132
85.000,-3.000,-1004.000,0.490,-0.630,0.140
84.219,-2.921,-1004.961,0.421,-0.624,0.197
84.231,-3.122,-1005.013,0.471,-0.685,0.274
86.370,-2.857,-1004.376,0.494,-0.707,0.266
84.623,-3.148,-1003.361,0.511,-0.696,0.343
84.564,-2.843,-1004.535,0.586,-0.703,0.435
86.021,-3.195,-1006.180,0.646,-0.697,0.424
84.970,-4.036,-1005.920,0.699,-0.702,0.493
85.932,-4.017,-1004.147,0.576,-0.764,0.430
85.357,-3.968,-1003.618,0.385,-0.828,0.353
84.678,-4.041,-1004.979,0.248,-0.886,0.318
85.239,-3.951,-1003.912,0.187,-0.927,0.224
84.793,-4.048,-1004.440,0.243,-0.879,0.214
85.117,-3.958,-1004.486,0.287,-0.832,0.204
84.951,-4.025,-1003.041,0.274,-0.847,0.214
85.000,-4.000,-1005.000,0.210,-0.910,0.210
84.980,-3.972,-1004.199,0.146,-0.918,0.144
85.701,-4.051,-1004.500,0.131,-0.857,0.179
85.760,-3.965,-1004.638,0.180,-0.799,0.268
84.402,-3.767,-1003.621,0.240,-0.753,0.275
85.666,-2.590,-1005.295,0.319,-0.785,0.299
85.760,-3.373,-1003.348,0.448,-0.754,0.363
85.006,-3.940,-1004.275,0.573,-0.698,0.428
85.059,-3.000,-1006.124,0.819,-0.638,0.612
84.044,-3.778,-1003.954,0.983,-0.560,0.814
84.626,-4.616,-1005.407,0.925,-0.575,0.858
85.099,-5.412,-1005.194,0.909,-0.510,0.800
84.979,-4.242,-1005.458,0.915,-0.500,0.746
84.927,-4.497,-1007.030,1.034,-0.458,0.675
85.124,-6.039,-1005.943,1.211,-0.338,0.628
86.000,-5.000,-1007.000,1.330,-0.280,0.630
85.158,-4.983,-1004.593,1.459,-0.153,0.570
84.872,-4.828,-1003.130,1.473,-0.135,0.548
85.017,-6.273,-1005.753,1.500,-0.110,0.598
85.323,-6.637,-1005.015,1.579,-0.033,0.685
86.052,-4.139,-1005.307,1.637,0.026,0.820
84.638,-4.226,-1005.720,1.800,0.072,0.945
85.158,-5.045,-1003.936,2.047,0.073,1.216
86.951,-5.905,-1004.880,2.169,0.138,1.463
86.993,-7.508,-1005.250,2.166,0.089,1.472
87.077,-9.597,-1003.974,2.187,0.059,1.482
86.774,-9.939,-1003.818,2.081,0.053,1.382
87.489,-10.705,-1003.753,1.847,-0.041,1.162
87.883,-12.011,-1004.051,1.611,-0.082,1.001
86.885,-9.622,-1003.938,1.452,-0.149,0.811
87.000,-10.000,-1004.000,1.330,-0.140,0.700
87.059,-11.151,-1004.958,1.201,-0.132,0.699
86.858,-10.004,-1004.295,1.150,-0.192,0.701
87.600,-10.274,-1004.015,1.018,-0.255,0.697
88.137,-9.278,-1005.652,1.016,-0.272,0.719
87.888,-9.318,-1005.548,1.170,-0.167,0.813
88.058,-10.015,-1004.774,1.187,-0.145,0.944
87.979,-10.053,-1003.975,1.190,-0.137,1.136
87.978,-10.989,-1004.879,1.128,-0.135,1.261
88.067,-10.193,-1005.312,1.054,-0.208,1.151
87.875,-10.402,-1003.809,1.051,-0.164,1.094
88.123,-11.709,-1004.129,1.048,-0.133,1.150
87.831,-12.327,-1003.116,1.042,-0.136,1.061
88.135,-13.081,-1003.319,0.930,-0.163,0.959
87.912,-11.707,-1003.892,0.746,-0.300,0.896
88.000,-11.000,-1003.000,0.700,-0.350,0.770
88.133,-11.159,-1004.740,0.762,-0.351,0.753
87.653,-9.533,-1005.133,0.844,-0.272,0.918
88.991,-7.874,-1005.184,1.149,-0.060,1.127
88.310,-6.224,-1006.150,1.494,0.014,1.499
88.319,-8.716,-1005.563,1.677,0.004,2.154
88.990,-13.796,-1006.247,1.982,0.105,2.558
89.052,-12.765,-1006.999,2.494,0.295,2.434
89.113,-11.827,-1006.103,3.045,0.417,2.372
87.775,-14.735,-1005.080,3.334,0.421,2.503
89.806,-13.918,-1004.748,3.437,0.424,2.524
88.334,-12.441,-1005.276,3.622,0.409,2.557
87.544,-13.646,-1005.666,3.755,0.454,2.803
90.389,-13.936,-1003.004,3.776,0.475,3.206
87.475,-14.130,-1003.480,3.693,0.329,3.544
88.000,-16.000,-1006.000,3.640,0.350,3.780
90.057,-18.642,-1004.179,3.654,0.481,3.806
89.636,-20.536,-1004.144,3.452,0.493,3.570
91.382,-22.165,-1002.024,3.159,0.470,3.383
92.097,-23.738,-1000.735,2.763,0.309,3.106
91.970,-23.843,-1002.162,2.130,0.033,2.594
91.998,-22.633,-1002.048,1.677,-0.178,2.154
91.986,-20.882,-1004.173,1.539,-0.287,1.875
91.114,-20.033,-1004.143,1.720,-0.410,1.813
89.993,-19.277,-1002.908,2.196,-0.490,2.025
90.643,-18.579,-1003.479,2.648,-0.510,2.379
91.102,-20.462,-1004.684,3.035,-0.666,2.711
91.117,-23.214,-1006.443,3.343,-0.645,2.795
92.457,-25.845,-1005.178,3.415,-0.435,2.567
92.980,-28.289,-1002.735,3.067,-0.436,2.168
93.000,-29.000,-1002.000,2.380,-0.630,1.610
93.124,-28.179,-1002.711,1.702,-0.881,1.110
92.077,-27.193,-1004.690,1.178,-0.980,0.742
92.568,-26.511,-1004.386,0.793,-0.978,0.422
92.838,-25.357,-1003.770,0.461,-0.963,0.317
91.455,-25.005,-1005.541,0.342,-0.873,0.246
90.978,-24.929,-1005.845,0.450,-0.841,0.213
91.002,-25.064,-1006.084,0.569,-0.838,0.205
91.004,-25.991,-1006.158,0.693,-0.776,0.139
90.976,-25.207,-1003.333,0.715,-0.709,0.200
91.045,-25.342,-1003.746,0.616,-0.694,0.176
90.852,-26.878,-1005.922,0.454,-0.705,0.097
91.358,-26.692,-1005.125,0.253,-0.694,0.041
92.144,-25.684,-1003.479,-0.034,-0.711,-0.013
91.909,-24.936,-1003.074,-0.402,-0.786,-0.089
91.000,-25.000,-1004.000,-0.630,-0.910,-0.210
90.074,-25.015,-1004.034,-0.756,-0.981,-0.210
89.919,-25.032,-1003.954,-0.789,-0.930,-0.261
90.447,-24.505,-1003.817,-0.719,-0.896,-0.260
91.609,-23.716,-1003.817,-0.685,-0.925,-0.162
92.037,-24.213,-1003.794,-0.559,-0.885,-0.127
91.918,-23.840,-1004.023,-0.282,-0.835,-0.049
90.910,-24.083,-1003.986,-0.059,-0.840,0.002
90.902,-24.987,-1003.993,-0.000,-0.839,0.002
91.997,-24.943,-1003.375,0.002,-0.889,-0.052
91.793,-25.192,-1001.781,-0.062,-0.996,-0.121
92.387,-24.323,-1002.452,-0.320,-1.155,-0.175
91.042,-24.232,-1002.755,-0.618,-1.348,-0.240
89.937,-25.214,-1003.159,-0.827,-1.525,-0.298
89.928,-24.871,-1002.784,-1.008,-1.705,-0.359
90.000,-24.000,-1002.000,-1.190,-1.820,-0.420
91.134,-23.936,-1003.844,-1.316,-1.935,-0.485
88.711,-24.124,-1003.346,-1.422,-2.080,-0.491
88.094,-23.792,-1002.751,-1.598,-2.100,-0.519
89.746,-24.324,-1002.297,-1.758,-2.125,-0.605
90.043,-23.315,-1002.337,-1.841,-2.185,-0.632
89.839,-21.843,-1005.547,-1.798,-2.158,-0.631
88.971,-22.017,-1004.851,-1.670,-2.093,-0.628
89.024,-21.999,-1004.841,-1.550,-1.970,-0.567
88.161,-22.044,-1006.214,-1.425,-1.889,-0.496
88.012,-21.858,-1004.271,-1.342,-1.903,-0.491
87.418,-22.309,-1004.104,-1.346,-1.842,-0.483
87.204,-21.136,-1005.130,-1.464,-1.839,-0.516
88.040,-19.972,-1004.661,-1.559,-1.893,-0.569
86.821,-21.163,-1003.954,-1.625,-1.805,-0.557
87.000,-21.000,-1004.000,-1.750,-1.820,-0.560
87.087,-20.141,-1003.950,-1.813,-1.892,-0.617
86.871,-19.174,-1004.698,-1.874,-1.839,-0.695
87.114,-19.008,-1004.965,-1.874,-1.782,-0.663
86.873,-18.607,-1004.920,-1.730,-1.709,-0.618
87.058,-17.841,-1006.496,-1.524,-1.666,-0.625
86.970,-18.026,-1006.727,-1.273,-1.586,-0.536
86.990,-18.032,-1004.869,-1.114,-1.543,-0.490
86.112,-18.955,-1004.004,-1.117,-1.607,-0.491
85.011,-18.340,-1004.639,-1.130,-1.611,-0.486
85.583,-17.652,-1005.858,-1.070,-1.616,-0.496
86.261,-18.400,-1004.793,-1.041,-1.575,-0.483
85.526,-17.345,-1003.690,-1.058,-1.516,-0.498
84.900,-17.224,-1005.544,-1.032,-1.438,-0.483
85.074,-18.021,-1005.950,-0.877,-1.311,-0.495
86.000,-17.000,-1006.000,-0.630,-1.190,-0.490
86.160,-16.004,-1006.039,-0.389,-1.063,-0.427
85.068,-16.624,-1005.993,-0.135,-1.001,-0.378
85.159,-17.739,-1004.930,0.010,-0.925,-0.287
84.370,-18.049,-1003.065,-0.072,-0.933,-0.312
84.218,-18.007,-1004.601,-0.308,-1.002,-0.354
85.075,-17.902,-1004.765,-0.537,-1.074,-0.358
85.032,-16.926,-1005.116,-0.711,-1.198,-0.424
85.964,-16.935,-1005.178,-0.771,-1.256,-0.421
85.296,-17.239,-1002.970,-0.757,-1.320,-0.419
84.741,-16.027,-1003.773,-0.863,-1.330,-0.416
85.189,-16.644,-1003.367,-0.954,-1.361,-0.453
84.816,-16.673,-1004.784,-1.009,-1.411,-0.503
85.131,-16.067,-1004.141,-1.056,-1.405,-0.483
84.885,-17.059,-1003.384,-1.053,-1.481,-0.493
84.000,-16.000,-1007.000,-1.120,-1.470,-0.490
83.889,-16.718,-1004.432,-1.183,-1.459,-0.488
84.850,-16.862,-1004.402,-1.236,-1.532,-0.493
84.556,-14.494,-1004.212,-1.332,-1.535,-0.486
83.669,-16.507,-1002.247,-1.500,-1.566,-0.509
84.234,-16.114,-1005.033,-1.656,-1.637,-0.608
83.750,-13.855,-1005.923,-1.675,-1.688,-0.716
82.984,-15.064,-1006.017,-1.601,-1.676,-0.695
83.006,-14.114,-1005.139,-1.417,-1.615,-0.634
82.944,-13.847,-1003.940,-1.223,-1.555,-0.577
83.155,-13.620,-1004.468,-1.097,-1.488,-0.506
82.336,-12.538,-1005.363,-0.971,-1.464,-0.484
82.229,-13.360,-1005.988,-0.873,-1.461,-0.493
83.058,-12.818,-1005.787,-0.827,-1.360,-0.489
81.789,-14.397,-1004.811,-0.757,-1.247,-0.488
82.000,-15.000,-1004.000,-0.700,-1.190,-0.420
82.181,-13.068,-1004.822,-0.704,-1.184,-0.351
81.577,-13.212,-1005.706,-0.613,-1.207,-0.359
83.119,-12.027,-1006.593,-0.431,-1.105,-0.303
81.891,-12.975,-1006.217,-0.258,-1.016,-0.278
81.125,-13.907,-1004.093,-0.060,-0.927,-0.264
82.091,-12.967,-1004.150,0.090,-0.731,-0.200
82.033,-14.057,-1005.069,0.065,-0.703,-0.212
82.968,-13.126,-1005.949,0.064,-0.704,-0.212
82.279,-12.717,-1006.096,0.137,-0.688,-0.205
81.771,-13.876,-1005.244,0.130,-0.723,-0.220
82.156,-13.964,-1004.085,0.185,-0.641,-0.174
81.834,-14.050,-1004.048,0.195,-0.659,-0.125
82.213,-13.955,-1005.184,0.119,-0.701,-0.159
83.122,-14.031,-1004.927,0.056,-0.707,-0.215
83.000,-14.000,-1005.000,-0.070,-0.770,-0.210
82.009,-13.151,-1005.029,-0.135,-0.768,-0.205
82.718,-12.753,-1004.979,-0.185,-0.822,-0.262
83.097,-13.790,-1004.375,-0.257,-0.845,-0.292
82.990,-13.666,-1003.422,-0.310,-0.861,-0.268
82.754,-12.759,-1004.297,-0.365,-0.928,-0.292
81.855,-13.207,-1005.001,-0.337,-0.901,-0.265
82.031,-14.025,-1005.009,-0.276,-0.913,-0.208
82.025,-13.141,-1005.011,-0.214,-0.914,-0.210
81.911,-11.902,-1004.985,-0.200,-0.849,-0.204
82.597,-12.871,-1004.338,-0.258,-0.836,-0.258
83.316,-12.442,-1003.353,-0.315,-0.840,-0.287
82.383,-12.204,-1004.466,-0.371,-0.843,-0.280
82.221,-13.159,-1004.880,-0.317,-0.828,-0.269
82.982,-13.027,-1005.108,-0.198,-0.762,-0.202
82.000,-14.000,-1005.000,-0.210,-0.770,-0.210
82.813,-13.303,-1003.972,-0.275,-0.777,-0.270
82.633,-11.924,-1004.231,-0.281,-0.751,-0.336
80.930,-12.652,-1003.193,-0.282,-0.831,-0.353
81.471,-13.103,-1005.584,-0.258,-0.807,-0.370
82.299,-12.929,-1006.265,-0.178,-0.769,-0.440
83.066,-13.067,-1003.640,-0.136,-0.757,-0.408
81.871,-12.945,-1005.166,-0.142,-0.701,-0.426
81.860,-12.025,-1005.147,-0.203,-0.829,-0.489
83.192,-12.706,-1003.835,-0.276,-0.863,-0.488
81.444,-13.289,-1005.211,-0.248,-0.774,-0.496
81.315,-12.414,-1006.039,-0.117,-0.779,-0.479
82.214,-11.573,-1005.885,0.116,-0.745,-0.517
81.898,-11.087,-1007.309,0.337,-0.679,-0.575
82.043,-13.443,-1005.441,0.420,-0.627,-0.645
82.000,-14.000,-1003.000,0.280,-0.700,-0.770
81.143,-12.041,-1003.922,-0.026,-0.829,-0.895
80.810,-12.865,-1003.857,-0.248,-0.849,-0.929
81.246,-12.019,-1004.565,-0.276,-0.804,-0.859
80.621,-10.484,-1004.662,-0.085,-0.731,-0.809
81.567,-11.499,-1005.163,0.153,-0.684,-0.593
81.778,-12.020,-1004.466,0.309,-0.608,-0.401
81.033,-11.999,-1003.054,0.347,-0.562,-0.421
81.994,-11.993,-1004.928,0.282,-0.627,-0.356
81.129,-12.073,-1004.826,0.328,-0.586,-0.340
81.614,-11.320,-1006.495,0.402,-0.499,-0.363
81.670,-11.157,-1005.140,0.460,-0.487,-0.316
80.966,-12.742,-1001.899,0.474,-0.517,-0.246
82.359,-12.772,-1003.547,0.275,-0.692,-0.207
81.851,-11.923,-1004.030,0.135,-0.761,-0.206
82.000,-12.000,-1005.000,0.210,-0.630,-0.140
82.132,-12.824,-1004.262,0.280,-0.623,-0.135
81.702,-13.839,-1003.604,0.237,-0.636,-0.147
82.863,-14.084,-1004.663,0.135,-0.653,-0.133
82.546,-13.698,-1004.755,-0.011,-0.752,-0.145
81.879,-12.480,-1004.870,-0.067,-0.766,-0.138
82.006,-12.094,-1004.979,0.017,-0.775,-0.135
82.028,-13.059,-1004.990,-0.005,-0.767,-0.064
82.926,-13.038,-1004.960,-0.006,-0.766,-0.064
83.170,-12.897,-1005.866,0.066,-0.833,-0.139
82.277,-13.211,-1005.320,0.064,-0.838,-0.094
81.501,-12.322,-1004.511,0.085,-0.851,-0.060
80.686,-12.250,-1005.008,0.034,-0.806,-0.076
81.360,-13.073,-1004.860,0.007,-0.778,-0.067
81.994,-11.761,-1005.053,0.081,-0.845,-0.071
82.000,-12.000,-1005.000,0.140,-0.770,-0.070
82.952,-13.111,-1004.950,0.205,-0.700,-0.069
82.346,-11.950,-1005.062,0.208,-0.704,-0.072
81.771,-13.258,-1004.706,0.246,-0.694,-0.067
82.133,-13.826,-1004.938,0.299,-0.706,-0.073
81.888,-12.932,-1004.546,0.256,-0.695,-0.067
82.052,-14.225,-1003.823,0.201,-0.704,-0.072
81.985,-12.811,-1004.092,0.215,-0.699,-0.069
81.988,-11.919,-1005.879,0.279,-0.698,-0.069
82.026,-13.000,-1006.238,0.229,-0.706,-0.073
81.961,-12.771,-1004.972,0.194,-0.685,-0.065
81.986,-13.742,-1004.870,0.226,-0.748,-0.078
82.039,-13.672,-1004.476,0.182,-0.753,-0.060
81.793,-12.889,-1003.801,0.120,-0.687,-0.081
80.955,-13.012,-1004.119,0.067,-0.705,-0.059
82.000,-13.000,-1005.000,0.140,-0.700,-0.000
82.205,-13.045,-1005.061,0.214,-0.697,-0.060
81.026,-12.827,-1004.821,0.154,-0.705,-0.078
81.139,-13.760,-1005.503,0.136,-0.693,-0.064
80.721,-13.621,-1005.602,0.139,-0.709,-0.074
81.435,-13.019,-1004.323,0.143,-0.688,-0.067
81.990,-14.266,-1003.947,0.136,-0.716,-0.072
82.029,-13.905,-1004.028,0.144,-0.770,-0.068
82.049,-13.016,-1004.922,0.207,-0.705,-0.006
81.771,-13.012,-1005.157,0.214,-0.692,0.017
82.960,-12.962,-1004.539,0.208,-0.705,-0.066
82.346,-13.046,-1005.537,0.210,-0.720,-0.028
82.095,-12.946,-1005.563,0.212,-0.801,-0.015
81.619,-13.047,-1004.649,0.200,-0.737,-0.083
81.155,-12.964,-1003.964,0.127,-0.708,-0.067
83.000,-13.000,-1005.000,0.070,-0.770,-0.070
82.208,-13.866,-1006.075,0.068,-0.766,-0.011
81.852,-14.198,-1005.075,0.074,-0.823,0.013
81.642,-13.320,-1005.368,0.063,-0.845,-0.014
80.556,-12.919,-1005.921,0.096,-0.841,0.016
81.491,-12.991,-1005.831,0.168,-0.825,-0.027
81.921,-13.105,-1005.879,0.217,-0.753,-0.075
80.925,-14.069,-1004.920,0.208,-0.697,-0.069
80.922,-14.066,-1004.053,0.208,-0.696,-0.070
81.932,-13.142,-1003.825,0.220,-0.760,-0.071
81.906,-12.851,-1004.619,0.154,-0.773,-0.069
82.218,-13.546,-1004.776,0.162,-0.772,-0.071
81.412,-13.931,-1004.966,0.248,-0.752,-0.069
81.220,-12.613,-1004.653,0.286,-0.674,-0.071
81.977,-13.257,-1004.050,0.274,-0.630,-0.069
81.000,-14.000,-1005.000,0.210,-0.700,-0.070
81.784,-13.003,-1004.922,0.146,-0.769,-0.071
82.290,-13.771,-1006.443,0.133,-0.767,-0.068
81.202,-13.978,-1006.712,0.151,-0.775,-0.073
81.239,-14.457,-1004.920,0.109,-0.778,-0.066
82.351,-14.913,-1004.961,0.047,-0.889,-0.074
81.657,-13.794,-1004.884,-0.012,-0.892,-0.066
81.049,-14.048,-1005.042,0.006,-0.842,-0.072
81.981,-14.037,-1005.063,0.069,-0.847,-0.072
81.879,-13.907,-1004.079,0.064,-0.714,-0.058
82.836,-14.132,-1004.289,0.121,-0.744,-0.129
82.473,-13.809,-1005.595,0.140,-0.748,-0.110
81.972,-14.401,-1005.524,0.165,-0.683,-0.057
81.737,-15.145,-1004.803,0.211,-0.704,-0.075
81.038,-14.891,-1005.065,0.124,-0.704,-0.068
82.000,-14.000,-1005.000,0.070,-0.770,-0.070
81.163,-13.938,-1004.900,0.065,-0.774,-0.070
80.914,-14.104,-1005.762,0.125,-0.768,-0.071
80.857,-13.825,-1005.954,0.115,-0.767,-0.068
81.887,-14.467,-1005.441,0.043,-0.780,-0.074
82.876,-15.164,-1004.368,0.092,-0.742,-0.064
80.523,-14.835,-1004.033,0.048,-0.706,-0.076
81.130,-13.946,-1005.084,0.002,-0.772,-0.065
81.138,-13.956,-1005.087,0.065,-0.707,-0.001
79.858,-14.173,-1004.006,0.128,-0.689,-0.053
81.292,-13.155,-1004.468,0.152,-0.711,-0.082
82.790,-13.424,-1004.954,0.125,-0.691,-0.061
82.513,-14.168,-1004.730,0.161,-0.705,-0.076
80.476,-14.052,-1005.021,0.104,-0.705,-0.067
81.308,-15.182,-1004.986,-0.009,-0.786,-0.071
82.000,-15.000,-1005.000,0.000,-0.840,-0.070
80.953,-14.021,-1004.980,0.002,-0.780,-0.069
81.894,-14.064,-1005.081,-0.002,-0.759,-0.071
81.413,-13.866,-1004.187,-0.000,-0.784,-0.070
80.906,-14.181,-1003.944,0.002,-0.751,-0.069
80.909,-13.772,-1005.255,-0.004,-0.803,-0.071
81.211,-14.280,-1004.621,0.005,-0.832,-0.068
81.986,-14.974,-1004.055,-0.004,-0.767,-0.071
81.032,-14.050,-1004.999,-0.069,-0.770,-0.072
81.780,-13.961,-1004.144,-0.019,-0.765,-0.061
81.500,-13.992,-1004.326,0.015,-0.817,-0.125
81.366,-14.051,-1005.059,-0.015,-0.850,-0.115
84.029,-13.905,-1004.845,0.026,-0.823,-0.051
81.811,-14.107,-1006.427,0.091,-0.737,-0.081
80.128,-13.913,-1005.660,0.142,-0.711,-0.064
82.000,-14.000,-1004.000,0.070,-0.840,-0.070
81.213,-14.972,-1004.854,0.001,-0.846,-0.137
80.746,-14.883,-1005.094,0.004,-0.837,-0.097
81.658,-15.345,-1004.722,-0.007,-0.810,-0.045
82.159,-13.917,-1004.896,0.008,-0.745,-0.117
81.676,-13.084,-1004.589,-0.009,-0.800,-0.124
80.874,-14.155,-1003.801,0.008,-0.844,-0.061
81.051,-13.982,-1004.080,-0.005,-0.839,-0.072
81.939,-14.005,-1004.981,-0.068,-0.839,-0.071
82.145,-13.899,-1004.947,-0.069,-0.846,-0.067
81.312,-14.733,-1005.005,-0.078,-0.795,-0.074
80.432,-15.012,-1004.133,-0.033,-0.754,-0.066
